ExE(keV)	bu1	bu2	bu3	bu1bu2	bu2bu3	bu1bu3	all
1690.0	9.311	2.655	7.778	16.028	8.299	36.576	17.224
1695.0	9.41	2.739	7.886	16.107	8.307	36.228	17.211
1700.0	9.396	2.809	7.83	15.918	8.358	36.417	17.197
1705.0	9.465	2.742	7.795	16.104	8.284	36.312	17.131
1710.0	9.397	2.76	8.076	16.13	8.177	36.282	16.987
1715.0	9.574	2.796	7.911	16.04	8.356	36.2	16.896
1720.0	9.688	2.81	7.836	16.03	8.299	36.236	16.943
1725.0	9.492	2.78	7.973	16.051	8.277	36.342	16.886
1730.0	9.67	2.832	8.094	15.953	8.176	36.257	16.839
1735.0	9.545	2.758	8.086	16.013	8.481	36.251	16.627
1740.0	9.472	2.827	7.963	16.377	8.466	36.026	16.67
1745.0	9.44	2.818	8.065	16.225	8.34	36.213	16.645
1750.0	9.657	2.838	8.058	16.267	8.573	35.897	16.479
1755.0	9.612	2.798	8.124	16.084	8.406	36.24	16.485
1760.0	9.696	2.762	8.043	16.547	8.403	35.961	16.396
1765.0	9.669	2.765	8.212	16.306	8.382	36.072	16.304
1770.0	9.74	2.94	8.043	16.344	8.449	36.055	16.192
1775.0	9.733	2.812	8.11	16.369	8.597	35.708	16.384
1780.0	9.72	2.827	8.075	16.109	8.428	36.101	16.403
1785.0	9.846	2.896	8.279	16.224	8.478	35.926	16.106
1790.0	9.581	2.856	8.291	16.367	8.525	36.033	16.097
1795.0	9.695	2.886	8.344	16.331	8.468	36.005	15.945
1800.0	9.691	2.818	8.165	16.288	8.599	35.877	16.191
1805.0	9.677	2.782	8.413	16.379	8.608	36.037	15.857
1810.0	9.648	2.858	8.261	16.59	8.567	35.865	15.83
1815.0	9.837	2.883	8.425	16.533	8.717	35.568	15.7
1820.0	9.749	2.862	8.467	16.552	8.558	35.808	15.639
1825.0	9.703	2.872	8.333	16.61	8.671	35.727	15.631
1830.0	9.712	2.866	8.418	16.582	8.629	35.941	15.453
1835.0	9.832	2.827	8.458	16.664	8.683	35.906	15.358
1840.0	9.845	2.874	8.56	16.477	8.666	35.85	15.393
1845.0	9.87	2.906	8.62	16.479	8.597	35.79	15.405
1850.0	9.84	2.829	8.447	16.46	8.787	35.812	15.406
1855.0	9.871	2.941	8.452	16.689	8.838	35.538	15.275
1860.0	9.867	2.885	8.528	16.791	8.906	35.461	15.15
1865.0	10.053	2.871	8.727	16.645	8.771	35.286	15.234
1870.0	9.875	2.944	8.655	16.941	8.78	35.203	15.203
1875.0	9.957	3.016	8.686	16.795	8.926	35.053	15.091
1880.0	10.012	2.903	8.859	16.938	8.711	35.144	15.006
1885.0	9.939	2.963	8.667	17.051	8.743	35.343	14.774
1890.0	9.93	2.962	8.838	16.789	8.94	35.251	14.765
1895.0	10.073	2.918	8.819	16.636	8.966	35.495	14.686
1900.0	10.015	2.959	8.96	16.669	9.024	35.214	14.686
1905.0	9.826	2.988	8.883	16.886	8.958	35.335	14.568
1910.0	9.811	2.915	9.06	16.852	9.004	35.343	14.476
1915.0	10.064	2.925	8.931	16.899	8.984	35.084	14.565
1920.0	10.051	3.057	8.857	17.085	8.918	35.012	14.42
1925.0	10.075	2.982	9.024	16.697	9.044	35.081	14.483
1930.0	10.062	3.0	9.076	16.987	8.997	35.01	14.355
1935.0	10.206	3.007	9.204	17.14	8.816	34.995	14.102
1940.0	10.108	2.984	9.077	16.959	9.274	35.067	13.977
1945.0	10.111	3.076	9.064	17.19	9.207	34.808	14.028
1950.0	10.164	3.046	9.212	17.041	9.158	34.924	13.845
1955.0	10.083	3.132	9.021	17.19	9.198	34.831	13.903
1960.0	10.128	2.995	9.254	16.885	9.344	34.9	13.964
1965.0	10.285	2.902	9.27	16.914	9.311	34.926	13.821
1970.0	10.067	2.865	9.419	17.127	9.368	34.652	13.849
1975.0	10.12	3.023	9.339	17.184	9.455	34.583	13.71
1980.0	10.143	3.133	9.322	17.028	9.308	34.709	13.708
1985.0	10.128	3.064	9.296	17.18	9.416	34.792	13.585
1990.0	10.126	3.037	9.494	17.146	9.408	34.736	13.405
1995.0	10.159	3.163	9.478	17.154	9.336	34.567	13.514
2000.0	10.135	3.068	9.538	17.216	9.375	34.633	13.396
2005.0	10.266	3.12	9.589	17.274	9.659	34.363	13.098
2009.9999999999998	10.198	3.054	9.514	16.876	9.57	34.666	13.404
2015.0000000000002	10.301	3.12	9.717	17.291	9.521	34.289	13.062
2020.0	10.248	3.187	9.561	17.175	9.644	34.136	13.249
2025.0	10.232	3.187	9.632	17.382	9.727	34.089	13.045
2029.9999999999998	10.343	3.165	9.638	17.106	9.653	34.287	13.092
2035.0000000000002	10.323	3.022	9.781	17.31	9.613	34.206	12.974
2040.0	10.33	3.218	9.788	17.138	9.781	34.186	12.835
2045.0	10.369	3.249	9.912	17.131	9.591	34.127	12.779
2050.0	10.318	3.111	9.931	17.141	9.915	33.92	12.887
2055.0	10.46	3.215	9.798	17.146	9.731	34.276	12.638
2060.0	10.462	3.107	9.87	17.393	9.742	33.77	12.837
2065.0	10.328	3.203	10.01	17.424	9.598	33.795	12.788
2070.0	10.162	3.256	9.949	17.394	9.815	33.863	12.697
2075.0	10.484	3.12	10.15	17.192	9.891	33.802	12.615
2080.0	10.306	3.236	10.071	17.393	9.872	33.68	12.625
2085.0	10.46	3.159	10.155	17.2	9.998	33.834	12.373
2090.0	10.628	3.2	10.101	17.184	9.932	33.455	12.542
2095.0	10.365	3.269	10.226	17.619	10.016	33.234	12.384
2100.0	10.412	3.243	10.293	17.361	10.092	33.595	12.164
2105.0	10.476	3.137	10.35	17.589	10.09	33.468	11.993
2110.0	10.476	3.356	10.412	17.29	10.144	33.208	12.221
2115.0	10.456	3.289	10.381	17.282	10.196	33.381	12.039
2120.0	10.432	3.378	10.497	17.166	10.247	33.318	12.041
2125.0	10.532	3.352	10.513	17.451	10.169	33.192	11.875
2130.0	10.447	3.285	10.369	17.749	10.164	33.074	11.913
2135.0	10.552	3.255	10.643	17.319	10.045	33.181	11.987
2140.0	10.447	3.329	10.763	17.296	10.326	33.283	11.668
2145.0	10.674	3.373	10.425	17.432	10.328	33.144	11.613
2150.0	10.446	3.338	10.56	17.442	10.315	33.254	11.598
2155.0	10.564	3.341	10.614	17.21	10.647	33.081	11.557
2160.0	10.467	3.394	10.85	17.562	10.393	32.809	11.407
2165.0	10.64	3.334	10.856	17.376	10.553	32.797	11.39
2170.0	10.63	3.288	10.766	17.7	10.429	32.863	11.253
2175.0	10.492	3.385	10.965	17.539	10.696	32.606	11.335
2180.0	10.615	3.317	11.003	17.377	10.506	32.855	11.338
2185.0	10.672	3.453	10.922	17.491	10.609	32.519	11.298
2190.0	10.684	3.353	10.881	17.575	10.612	32.437	11.287
2195.0	10.687	3.3	11.073	17.497	10.513	32.812	10.982
2200.0	10.554	3.383	10.917	17.587	10.727	32.615	11.023
2205.0	10.849	3.532	10.958	17.478	10.839	32.328	10.908
2210.0	10.444	3.39	11.446	17.672	10.748	32.386	10.794
2215.0	10.641	3.396	11.096	17.685	10.54	32.343	11.069
2220.0	10.624	3.438	11.087	17.678	10.902	32.485	10.658
2225.0	10.946	3.441	11.255	17.492	10.563	32.257	10.795
2230.0	10.685	3.42	11.314	17.782	10.798	32.069	10.737
2235.0	10.539	3.438	11.417	17.571	10.972	32.06	10.689
2240.0	10.767	3.52	11.415	17.58	10.947	31.96	10.503
2245.0	10.932	3.365	11.238	17.368	11.115	32.067	10.716
2250.0	10.799	3.561	11.575	17.511	11.035	31.945	10.278
2255.0	10.823	3.552	11.501	17.615	11.026	31.988	10.258
2260.0	10.766	3.465	11.592	17.654	10.974	31.885	10.347
2265.0	10.968	3.471	11.546	17.632	11.189	31.635	10.241
2270.0	10.798	3.599	11.666	17.403	11.084	31.738	10.397
2275.0	10.957	3.53	11.56	17.503	11.314	31.615	10.13
2280.0	10.737	3.517	11.733	17.446	11.356	31.699	10.068
2285.0	10.873	3.451	11.696	17.489	11.438	31.738	10.059
2290.0	10.887	3.567	11.853	17.572	11.343	31.439	10.002
2295.0	10.956	3.506	11.845	17.689	11.428	31.443	9.823
2300.0	10.991	3.564	11.917	17.709	11.456	31.147	9.827
2305.0	11.042	3.507	11.926	17.636	11.297	31.381	9.789
2310.0	10.843	3.615	11.963	17.637	11.416	31.298	9.823
2315.0	10.993	3.539	11.845	17.577	11.418	31.474	9.786
2320.0	10.972	3.5	11.843	17.726	11.458	31.222	9.804
2325.0	11.039	3.557	12.066	17.571	11.518	31.128	9.647
2330.0	11.01	3.679	12.032	17.545	11.666	30.985	9.6
2335.0	11.053	3.595	12.153	17.67	11.653	31.091	9.274
2340.0	11.187	3.759	12.214	17.514	11.66	30.749	9.402
2345.0	10.88	3.644	12.052	17.669	11.865	31.016	9.389
2350.0	11.076	3.535	12.294	17.83	11.74	30.74	9.278
2355.0	11.059	3.566	12.279	17.718	11.821	30.717	9.247
2360.0	11.095	3.728	12.355	17.675	11.705	30.565	9.314
2365.0	11.161	3.753	12.187	17.458	11.866	30.934	9.09
2370.0	11.132	3.572	12.436	17.5	11.75	30.792	9.175
2375.0	11.233	3.726	12.517	17.497	11.936	30.5	9.028
2380.0	11.25	3.66	12.356	17.419	12.019	30.549	9.178
2385.0	11.233	3.618	12.486	17.703	11.87	30.54	8.961
2390.0	11.405	3.586	12.69	17.583	11.894	30.325	9.035
2395.0	11.26	3.574	12.624	17.619	11.97	30.361	9.007
2400.0	11.263	3.744	12.513	17.604	12.009	30.269	8.993
2405.0	11.336	3.759	12.551	17.65	12.062	30.35	8.599
2410.0	11.217	3.761	12.887	17.651	12.034	30.15	8.653
2415.0	11.259	3.694	12.548	17.763	12.266	30.157	8.65
2420.0	11.311	3.724	12.651	17.628	12.157	30.089	8.684
2425.0	11.034	3.703	12.931	17.867	12.243	30.005	8.583
2430.0	11.311	3.681	12.847	17.609	12.376	29.892	8.545
2435.0	11.487	3.716	12.838	17.663	12.22	29.946	8.42
2440.0	11.529	3.704	12.754	17.659	12.307	29.942	8.438
2445.0	11.362	3.758	12.771	17.833	12.289	29.789	8.344
2450.0	11.463	3.736	12.722	17.743	12.462	29.609	8.428
2455.0	11.47	3.816	13.065	17.435	12.307	29.613	8.403
2460.0	11.362	3.766	12.887	18.004	12.588	29.336	8.24
2465.0	11.537	3.639	13.108	17.772	12.314	29.657	8.154
2470.0	11.422	3.833	13.173	17.689	12.42	29.298	8.313
2475.0	11.533	3.785	13.123	17.657	12.609	29.399	8.116
2480.0	11.649	3.867	13.124	17.458	12.455	29.401	8.166
2485.0	11.547	3.828	13.086	17.75	12.754	29.085	8.055
2490.0	11.613	3.745	13.383	17.567	12.652	29.341	7.836
2495.0	11.625	3.859	13.148	17.678	12.793	29.156	7.82
2500.0	11.606	3.778	13.366	17.578	12.692	29.205	7.922
2505.0	11.608	3.898	13.433	17.495	12.66	29.004	7.903
2510.0	11.604	3.849	13.417	17.715	12.767	28.883	7.773
2515.0	11.517	3.864	13.355	17.654	12.796	29.055	7.823
2520.0	11.633	3.849	13.419	17.754	12.719	29.004	7.634
2525.0	11.754	3.897	13.431	17.391	12.839	29.101	7.661
2530.0	11.679	3.723	13.463	17.909	12.836	28.729	7.704
2535.0	11.709	3.852	13.496	17.686	12.962	28.715	7.583
2540.0	11.596	3.931	13.493	17.735	13.22	28.53	7.441
2545.0	11.574	3.834	13.572	17.7	12.941	28.785	7.572
2550.0	11.732	3.887	13.674	17.602	13.039	28.558	7.525
2555.0	11.806	3.808	13.72	17.762	13.028	28.621	7.24
2560.0	11.668	3.907	13.804	17.572	12.987	28.449	7.513
2565.0	11.882	3.849	13.843	17.636	13.029	28.506	7.198
2570.0	11.997	3.857	13.724	17.76	12.981	28.398	7.206
2575.0	11.871	3.905	13.944	17.556	13.137	28.294	7.248
2580.0	11.939	3.969	13.866	17.561	13.17	28.204	7.213
2585.0	11.735	3.899	13.73	17.719	13.335	28.274	7.212
2590.0	11.913	3.983	13.844	17.688	13.21	28.252	6.964
2595.0	12.018	3.826	13.955	17.663	13.349	28.088	6.983
2600.0	11.88	3.851	13.835	17.863	13.43	28.124	6.947
2605.0	11.957	4.009	13.97	17.841	12.978	28.145	6.895
2610.0	11.848	4.003	13.828	17.717	13.555	27.885	6.981
2615.0	12.025	3.887	13.991	17.674	13.348	28.006	6.83
2620.0	12.193	3.991	14.012	17.578	13.384	27.832	6.778
2625.0	12.054	3.885	14.148	17.634	13.608	27.822	6.643
2630.0	12.212	3.978	14.174	17.718	13.478	27.672	6.573
2635.0	11.853	3.84	14.352	17.569	13.486	27.916	6.726
2640.0	12.167	3.844	14.363	17.755	13.548	27.559	6.739
2645.0	12.125	3.989	14.31	17.479	13.668	27.449	6.693
2650.0	12.187	4.015	14.301	17.663	13.643	27.367	6.577
2655.0	12.29	3.975	14.029	17.631	13.648	27.695	6.578
2660.0	12.193	4.018	14.272	17.455	13.899	27.302	6.454
2665.0	12.153	4.007	14.278	17.756	13.54	27.531	6.559
2670.0	12.276	4.084	14.425	17.49	13.76	27.28	6.454
2675.0	12.294	3.939	14.411	17.6	13.694	27.285	6.427
2680.0	12.257	3.944	14.44	17.695	13.631	27.208	6.444
2685.0	12.337	4.028	14.447	17.656	13.558	27.421	6.226
2690.0	12.232	4.008	14.445	17.669	13.888	27.219	6.255
2695.0	12.328	3.935	14.527	17.389	13.784	27.223	6.405
2700.0	12.403	4.025	14.292	17.785	13.819	27.128	6.25
2705.0	12.374	4.048	14.526	17.705	13.89	26.749	6.226
2710.0	12.358	4.151	14.402	17.508	13.889	26.928	6.252
2715.0	12.297	4.059	14.59	17.852	13.925	26.865	5.936
2720.0	12.178	4.044	14.749	17.659	14.058	26.955	6.054
2725.0	12.307	4.076	14.684	17.791	13.936	26.807	5.983
2730.0	12.516	4.056	14.601	17.46	14.076	26.979	5.979
2735.0	12.455	4.195	14.683	17.822	14.005	26.514	5.904
2740.0	12.445	3.981	14.575	17.665	14.044	26.836	5.911
2745.0	12.516	4.043	14.692	17.446	14.068	26.888	5.842
2750.0	12.598	4.076	14.719	17.677	13.992	26.524	5.816
2755.0	12.496	4.12	14.837	17.751	14.241	26.265	5.715
2760.0	12.491	4.071	14.693	18.0	14.167	26.461	5.703
2765.0	12.668	4.351	14.771	17.588	14.2	26.463	5.625
2770.0	12.626	4.188	14.637	17.674	14.235	26.434	5.646
2775.0	12.529	4.175	15.124	17.832	14.287	25.973	5.61
2780.0	12.796	4.122	14.665	17.583	14.162	26.449	5.633
2785.0	12.651	4.188	14.893	17.743	14.196	26.312	5.501
2790.0	12.663	4.09	14.998	17.785	14.364	25.999	5.59
2795.0	12.73	4.153	14.799	17.756	14.394	26.119	5.489
2800.0	12.619	4.183	15.065	17.665	14.274	26.153	5.501
2805.0	12.884	4.177	15.232	17.581	14.325	25.844	5.344
2810.0	12.947	4.066	15.051	17.664	14.507	25.813	5.358
2815.0	12.645	4.247	15.19	17.614	14.383	25.8	5.456
2820.0	12.867	4.186	15.17	17.538	14.524	25.785	5.317
2825.0	12.741	4.218	15.245	17.462	14.426	25.784	5.474
2830.0	12.686	4.113	15.019	17.724	14.502	25.844	5.365
2835.0	12.799	4.163	15.121	17.65	14.43	25.728	5.346
2840.0	12.948	4.172	15.253	17.48	14.51	25.669	5.27
2845.0	12.851	4.225	15.15	17.626	14.548	25.681	5.18
2850.0	12.84	4.256	15.226	17.851	14.527	25.412	5.229
2855.0	12.901	4.242	15.401	17.639	14.578	25.446	5.068
2860.0	12.897	4.273	15.095	17.582	14.736	25.608	5.111
2865.0	13.219	4.2	15.344	17.583	14.735	25.195	4.959
2870.0	12.965	4.203	15.63	17.356	14.755	25.37	5.037
2875.0	13.071	4.227	15.279	17.4	14.75	25.686	4.911
2880.0	13.012	4.205	15.407	17.368	14.713	25.402	5.082
2885.0	13.021	4.209	15.531	17.453	14.814	25.261	4.989
2890.0	13.17	4.256	15.559	17.642	14.698	24.939	4.995
2895.0	13.226	4.248	15.511	17.433	14.763	25.131	5.026
2900.0	13.27	4.321	15.43	17.445	14.849	25.052	4.817
2905.0	13.12	4.316	15.604	17.475	14.901	24.99	4.775
2910.0	13.071	4.315	15.466	17.708	14.859	24.983	4.832
2915.0	13.263	4.337	15.538	17.547	14.876	24.914	4.673
2920.0	13.151	4.258	15.577	17.393	14.872	25.191	4.839
2925.0	13.292	4.224	15.493	17.594	15.083	24.773	4.705
2930.0	13.008	4.192	15.663	17.582	14.781	25.175	4.735
2935.0	13.361	4.313	15.675	17.571	14.991	24.617	4.548
2940.0	13.2	4.303	15.727	17.422	14.723	25.032	4.696
2945.0	13.395	4.258	15.767	17.537	14.771	24.733	4.575
2950.0	13.358	4.196	15.648	17.603	15.096	24.698	4.617
2955.0	13.536	4.326	15.62	17.592	15.083	24.389	4.607
2960.0	13.347	4.32	15.756	17.36	14.945	24.718	4.516
2965.0	13.502	4.321	15.68	17.458	15.168	24.477	4.464
2970.0	13.397	4.278	15.766	17.669	14.889	24.534	4.535
2975.0	13.43	4.215	15.627	17.61	15.034	24.648	4.504
2980.0	13.343	4.274	15.947	17.74	14.948	24.42	4.36
2985.0	13.439	4.418	16.044	17.529	15.163	24.154	4.414
2990.0	13.367	4.26	15.789	17.613	15.296	24.399	4.374
2995.0	13.69	4.3	15.984	17.37	15.292	24.091	4.213
3000.0	13.473	4.376	15.946	17.467	15.262	24.119	4.326
3005.0	13.535	4.361	15.729	17.737	15.391	24.037	4.205
3010.0	13.747	4.342	15.802	17.526	15.347	24.037	4.159
3015.0	13.57	4.258	15.975	17.559	15.363	24.147	4.158
3020.0	13.572	4.332	16.018	17.802	15.147	23.954	4.125
3025.0	13.638	4.381	16.294	17.473	15.239	23.725	4.189
3030.0	13.733	4.444	16.012	17.64	15.211	23.987	4.069
3035.0	13.856	4.33	15.939	17.674	15.14	24.007	4.065
3040.0	13.815	4.437	16.081	17.424	15.578	23.545	4.066
3045.0	13.839	4.572	15.924	17.371	15.444	23.736	4.114
3050.0	13.569	4.452	16.234	17.423	15.514	23.756	3.975
3055.0	13.755	4.433	15.917	17.704	15.253	23.725	4.074
3060.0	13.66	4.401	16.178	17.596	15.55	23.825	3.852
3065.0	13.794	4.477	16.233	17.362	15.28	23.817	3.966
3070.0	13.993	4.431	16.162	17.37	15.452	23.633	3.905
3075.0	13.926	4.414	16.335	17.247	15.323	23.65	3.962
3080.0	13.9	4.474	16.178	17.443	15.593	23.407	3.82
3085.0	13.946	4.445	16.167	17.398	15.602	23.411	3.865
3090.0	14.165	4.333	16.149	17.413	15.367	23.522	3.915
3095.0	14.023	4.589	16.306	17.403	15.381	23.314	3.905
3100.0	14.253	4.481	16.305	17.685	15.429	23.109	3.632
3105.0	14.111	4.483	16.321	17.549	15.276	23.246	3.788
3110.0	14.102	4.432	16.469	17.553	15.53	23.079	3.679
3115.0	14.237	4.456	16.133	17.583	15.454	23.283	3.573
3120.0	14.1	4.47	16.477	17.422	15.623	23.067	3.654
3125.0	14.096	4.421	16.256	17.411	15.566	23.252	3.677
3130.0	14.064	4.444	16.546	17.161	15.742	23.15	3.582
3135.0	14.27	4.31	16.577	17.359	15.563	23.18	3.612
3140.0	14.345	4.486	16.246	17.426	15.591	23.18	3.543
3145.0	14.242	4.569	16.508	17.439	15.698	22.756	3.513
3150.0	14.328	4.431	16.625	17.395	15.69	22.872	3.59
3155.0	14.471	4.544	16.494	17.436	15.635	22.713	3.529
3160.0	14.268	4.662	16.231	17.493	15.771	22.783	3.531
3165.0	14.22	4.639	16.387	17.286	15.85	22.817	3.562
3170.0	14.364	4.484	16.551	17.406	15.712	22.784	3.51
3175.0	14.501	4.529	16.514	17.408	15.738	22.702	3.409
3180.0	14.343	4.567	16.785	17.243	15.948	22.652	3.283
3185.0	14.443	4.542	16.451	17.718	15.891	22.37	3.335
3190.0	14.429	4.676	16.76	17.153	15.999	22.36	3.311
3195.0	14.622	4.577	16.632	17.337	15.911	22.406	3.304
3200.0	14.66	4.576	16.728	17.302	15.624	22.592	3.207
3205.0	14.615	4.546	16.536	17.083	15.924	22.579	3.344
3210.0	14.486	4.535	16.672	17.492	15.735	22.487	3.213
3215.0	14.456	4.602	16.763	17.274	16.043	22.202	3.263
3220.0	14.745	4.678	16.801	17.428	15.904	22.029	3.222
3225.0	14.55	4.662	16.783	17.229	15.946	22.281	3.151
3230.0	14.634	4.706	16.809	17.407	15.888	22.134	3.108
3235.0	14.651	4.624	16.731	17.06	16.138	22.224	3.123
3240.0	14.574	4.595	16.601	17.509	16.047	22.214	3.166
3245.0	14.581	4.645	16.919	17.208	15.969	22.185	3.033
3250.0	14.507	4.582	16.843	17.31	16.182	22.09	3.003
3255.0	14.791	4.601	16.762	17.395	16.224	21.974	3.038
3260.0	14.687	4.703	16.877	17.095	16.109	22.132	3.032
3265.0	14.828	4.569	16.8	17.498	16.037	21.927	3.019
3270.0	14.92	4.555	16.95	17.286	16.071	21.867	2.968
3275.0	14.565	4.789	17.061	17.23	16.271	21.809	2.857
3280.0	14.785	4.652	16.756	17.339	16.084	21.975	2.979
3285.0	14.831	4.655	17.078	17.25	16.021	21.72	2.992
3290.0	14.979	4.618	17.056	17.304	16.245	21.548	2.849
3295.0	14.854	4.71	17.205	17.269	16.169	21.475	2.935
3300.0	14.895	4.616	17.167	17.528	15.726	21.689	2.88
3305.0	15.01	4.837	17.042	17.169	16.119	21.549	2.82
3310.0	14.984	4.813	17.095	17.226	16.061	21.565	2.777
3315.0	15.021	4.701	17.022	17.253	16.202	21.533	2.787
3320.0	15.199	4.663	17.039	16.962	16.161	21.679	2.821
3325.0	15.226	4.741	17.032	17.161	16.031	21.448	2.798
3330.0	14.944	4.876	17.062	17.13	16.267	21.303	2.797
3335.0	15.147	4.766	17.035	17.414	16.138	21.294	2.789
3340.0	15.109	4.85	17.035	17.272	16.159	21.272	2.749
3345.0	15.225	4.724	17.088	17.063	16.167	21.333	2.678
3350.0	15.274	4.724	17.153	17.284	16.23	21.178	2.805
3355.0	15.118	4.747	17.142	17.209	16.355	21.276	2.59
3360.0	15.143	4.84	17.219	17.218	16.277	21.166	2.658
3365.0	15.231	4.815	17.168	17.283	16.43	21.054	2.47
3370.0	15.319	4.841	17.2	17.03	16.158	21.381	2.616
3375.0	15.218	4.82	17.182	17.135	16.507	21.044	2.543
3380.0	15.321	4.756	17.211	17.264	16.167	20.97	2.596
3385.0	15.343	4.913	17.413	17.173	16.276	20.868	2.572
3390.0	15.422	4.85	17.305	17.165	16.301	20.826	2.569
3395.0	15.379	4.927	17.181	17.201	16.656	20.605	2.494
3400.0	15.374	4.798	17.37	17.347	16.205	20.887	2.542
3405.0	15.345	4.949	17.459	17.069	16.307	20.637	2.529
3410.0	15.367	4.776	17.461	17.388	16.131	20.8	2.429
3415.0	15.32	4.854	17.386	17.139	16.458	20.682	2.522
3420.0	15.467	4.884	17.438	17.199	16.244	20.783	2.382
3425.0	15.476	4.935	17.284	17.229	16.454	20.61	2.366
3430.0	15.649	4.788	17.573	17.031	16.524	20.368	2.465
3435.0	15.461	4.869	17.149	17.019	16.661	20.768	2.387
3440.0	15.674	4.851	17.625	17.19	16.365	20.35	2.37
3445.0	15.871	4.905	17.36	17.07	16.527	20.335	2.375
3450.0	15.677	4.793	17.37	17.094	16.522	20.48	2.382
3455.0	15.68	4.917	17.496	17.05	16.594	20.185	2.362
3460.0	15.417	4.851	17.629	17.117	16.742	20.182	2.371
3465.0	15.716	4.901	17.475	16.954	16.439	20.6	2.21
3470.0	15.989	4.8	17.357	16.977	16.468	20.428	2.231
3475.0	15.851	4.87	17.718	17.02	16.54	19.998	2.289
3480.0	15.929	4.962	17.599	17.086	16.316	20.016	2.315
3485.0	15.851	4.965	17.469	16.888	16.58	20.286	2.248
3490.0	15.905	4.858	17.615	17.09	16.702	19.901	2.215
3495.0	15.956	5.053	17.462	16.91	16.773	20.073	2.171
3500.0	15.995	4.796	17.675	16.996	16.597	20.085	2.185
3505.0	15.887	4.963	17.703	17.078	16.78	19.842	2.102
3510.0	15.783	4.898	17.668	16.854	16.858	20.02	2.132
3515.0	16.092	4.877	17.786	17.2	16.423	19.999	2.115
3520.0	15.878	5.084	17.733	17.132	16.495	19.824	2.11
3525.0	16.108	5.095	17.768	16.916	16.634	19.583	2.093
3530.0	16.062	4.998	17.788	17.18	16.543	19.739	2.017
3535.0	15.968	5.075	17.763	17.019	16.678	19.954	2.041
3540.0	16.115	5.074	17.868	16.8	16.652	19.824	2.019
3545.0	16.185	5.006	17.669	16.851	16.612	19.784	2.052
3550.0	15.926	5.076	17.738	17.018	16.82	19.553	1.957
3555.0	16.158	5.02	17.786	16.975	16.627	19.666	2.03
3560.0	16.228	5.081	17.997	16.836	16.498	19.583	1.968
3565.0	16.181	4.984	17.827	16.842	16.851	19.726	1.855
3570.0	16.326	5.049	17.853	17.01	16.546	19.437	1.985
3575.0	16.423	5.048	18.054	16.753	16.785	19.369	1.916
3580.0	16.387	5.153	17.663	16.976	16.663	19.335	1.962
3585.0	16.369	5.026	17.944	16.728	16.821	19.297	1.933
3590.0	16.436	5.191	17.729	16.975	16.624	19.296	1.921
3595.0	16.291	5.109	18.002	16.914	16.62	19.436	1.871
3600.0	16.143	5.204	17.958	16.84	16.945	19.158	1.863
3605.0	16.221	5.068	17.888	17.061	16.853	19.148	1.856
3610.0	16.346	5.186	17.987	16.781	16.761	19.162	1.932
3615.0	16.551	5.102	17.976	16.83	16.814	19.053	1.829
3620.0	16.541	5.206	17.949	16.66	16.909	18.939	1.925
3625.0	16.296	5.137	17.948	16.859	16.76	19.264	1.81
3630.0	16.62	5.169	18.017	16.878	16.679	19.06	1.707
3635.0	16.318	5.096	17.886	16.91	17.109	18.98	1.814
3640.0	16.433	5.23	18.2	16.802	16.682	19.122	1.781
3645.0	16.536	5.167	18.067	16.947	16.866	18.726	1.758
3650.0	16.648	5.243	18.174	16.803	16.749	18.87	1.704
3655.0	16.692	5.26	18.019	16.812	16.636	18.884	1.799
3660.0	16.62	5.164	18.279	16.647	16.988	18.728	1.66
3665.0	16.828	5.354	18.053	16.934	16.749	18.58	1.669
3670.0	16.599	5.085	18.302	16.605	17.037	18.75	1.764
3675.0	16.562	5.212	18.098	16.745	17.084	18.608	1.656
3680.0	16.958	5.223	18.173	16.525	17.129	18.597	1.623
3685.0	16.693	5.258	18.34	16.769	16.851	18.553	1.647
3690.0	16.746	5.415	18.217	16.89	16.603	18.581	1.622
3695.0	16.782	5.244	18.419	16.453	16.998	18.465	1.615
3700.0	16.805	5.259	18.267	16.555	17.067	18.529	1.583
3705.0	16.846	5.378	18.076	16.684	16.884	18.571	1.575
3710.0	16.744	5.308	18.397	16.804	17.019	18.295	1.581
3715.0	16.78	5.407	18.398	16.646	17.12	18.224	1.512
3720.0	17.04	5.27	18.138	16.805	16.909	18.294	1.611
3725.0	16.948	5.205	18.501	16.697	16.995	18.19	1.54
3730.0	16.869	5.423	18.29	16.747	16.951	18.302	1.519
3735.0	17.28	5.354	18.128	16.705	16.992	18.066	1.488
3740.0	16.922	5.341	18.496	16.66	16.971	18.161	1.496
3745.0	17.038	5.458	18.246	16.577	17.179	18.098	1.44
3750.0	16.992	5.463	18.459	16.62	17.148	17.953	1.488
3755.0	17.025	5.445	18.346	16.614	17.166	18.073	1.442
3760.0	17.112	5.33	18.486	16.639	16.865	18.179	1.402
3765.0	17.209	5.423	18.728	16.622	16.716	17.968	1.45
3770.0	17.235	5.44	18.502	16.74	17.023	17.741	1.407
3775.0	16.881	5.423	18.582	16.47	17.141	18.046	1.395
3780.0	17.02	5.372	18.333	16.786	17.133	17.924	1.434
3785.0	17.25	5.316	18.39	16.795	17.082	17.765	1.407
3790.0	17.163	5.435	18.463	16.676	17.049	17.765	1.393
3795.0	17.274	5.476	18.676	16.43	17.097	17.643	1.411
3800.0	17.191	5.507	18.593	16.508	17.081	17.754	1.327
3805.0	17.184	5.477	18.591	16.553	17.117	17.852	1.303
3810.0	17.211	5.5	18.37	16.692	17.084	17.625	1.325
3815.0	17.275	5.442	18.494	16.505	17.145	17.788	1.348
3820.0	17.428	5.464	18.666	16.521	17.112	17.585	1.329
3825.0	17.333	5.538	18.482	16.651	17.195	17.45	1.286
3830.0	17.423	5.476	18.593	16.53	17.179	17.317	1.338
3835.0	17.546	5.581	18.607	16.353	17.177	17.456	1.294
3840.0	17.345	5.535	18.71	16.454	17.078	17.576	1.212
3845.0	17.721	5.515	18.361	16.279	17.373	17.3	1.247
3850.0	17.633	5.519	18.619	16.336	17.221	17.37	1.223
3855.0	17.46	5.661	18.543	16.643	17.065	17.3	1.266
3860.0	17.476	5.508	18.517	16.289	17.35	17.602	1.232
3865.0	17.559	5.575	18.51	16.444	17.185	17.23	1.235
3870.0	17.437	5.628	18.86	16.334	17.166	17.318	1.15
3875.0	17.699	5.508	18.779	16.212	17.305	17.253	1.115
3880.0	17.508	5.41	18.849	16.389	17.2	17.348	1.24
3885.0	17.679	5.691	18.86	16.464	17.055	16.876	1.185
3890.0	17.835	5.603	18.594	16.255	17.325	17.141	1.154
3895.0	17.642	5.556	18.792	16.44	17.196	16.979	1.139
3900.0	17.966	5.615	18.669	16.084	17.197	17.103	1.181
3905.0	17.829	5.667	18.602	16.294	17.242	16.977	1.125
3910.0	17.776	5.676	18.854	16.213	17.283	17.019	1.104
3915.0	17.825	5.603	18.815	16.262	17.471	16.816	1.111
3920.0	17.812	5.705	18.743	16.498	17.094	16.795	1.124
3925.0	17.725	5.541	18.81	16.368	17.317	17.062	1.067
3930.0	17.847	5.686	18.717	16.453	17.327	16.758	1.124
3935.0	17.725	5.708	19.031	16.142	17.311	16.862	1.079
3940.0	18.026	5.733	18.847	16.435	17.142	16.813	1.058
3945.0	17.934	5.681	19.034	16.093	17.399	16.783	1.003
3950.0	17.989	5.817	19.028	16.149	17.179	16.636	1.032
3955.0	18.088	5.834	19.104	16.194	17.125	16.499	1.034
3960.0	18.106	5.765	18.958	16.063	17.351	16.563	0.966
3965.0	17.995	5.874	19.106	16.211	17.204	16.378	1.027
3970.0	18.196	5.703	18.938	16.143	17.408	16.364	0.994
3975.0	18.047	5.745	19.078	16.146	17.332	16.577	1.022
3980.0	17.948	5.835	19.158	16.218	17.163	16.577	0.977
3985.0	18.054	5.72	18.885	16.185	17.435	16.449	0.973
3990.0	18.125	5.721	19.302	16.164	17.251	16.264	0.936
3995.0	18.259	5.707	19.156	16.357	17.153	16.186	0.944
4000.0	18.233	5.754	18.926	16.13	17.411	16.338	0.946
4005.0	18.099	5.969	18.974	15.938	17.357	16.501	0.965
4010.0	18.388	5.838	18.936	16.343	17.089	16.216	0.976
4014.9999999999995	18.218	5.815	19.094	16.207	17.252	16.3	0.92
4019.9999999999995	18.495	5.765	19.175	16.044	17.222	16.044	0.959
4025.0000000000005	18.352	5.916	19.201	15.992	17.35	16.002	0.9
4030.0000000000005	18.404	5.846	19.12	16.168	17.116	16.154	0.891
4035.0	18.255	5.813	19.25	16.156	17.257	16.176	0.925
4040.0	18.557	5.839	19.223	15.99	17.21	16.132	0.875
4045.0	18.265	5.8	19.123	15.943	17.55	16.14	0.892
4050.0	18.502	5.815	19.136	15.913	17.741	15.868	0.838
4054.9999999999995	18.37	5.948	19.13	16.106	17.301	16.058	0.861
4059.9999999999995	18.488	5.969	18.946	16.161	17.404	15.977	0.886
4065.0000000000005	18.448	6.048	19.016	16.076	17.42	15.901	0.856
4070.0000000000005	18.733	6.032	19.16	16.023	17.306	15.682	0.835
4075.0	18.429	6.036	19.261	16.001	17.358	15.765	0.815
4080.0	18.586	5.967	19.315	15.797	17.495	15.721	0.777
4085.0	18.603	5.97	19.259	15.889	17.382	15.728	0.849
4090.0	18.577	6.024	19.265	15.869	17.621	15.573	0.788
4094.9999999999995	18.638	6.058	19.282	15.987	17.328	15.587	0.78
4100.0	18.76	5.981	19.199	15.957	17.378	15.602	0.771
4105.0	18.848	6.121	19.224	15.944	17.349	15.586	0.75
4110.0	18.915	6.015	19.198	16.033	17.064	15.639	0.777
4115.0	18.692	5.956	19.339	16.11	17.385	15.44	0.82
4120.0	18.739	5.923	19.313	15.943	17.384	15.523	0.795
4125.0	18.716	6.12	19.338	15.99	17.332	15.393	0.744
4130.0	18.548	6.138	19.315	15.913	17.582	15.421	0.728
4135.0	18.752	6.012	19.436	15.892	17.318	15.644	0.736
4140.0	18.922	6.054	19.346	15.859	17.395	15.415	0.706
4145.0	18.803	6.06	19.381	15.873	17.576	15.337	0.749
4150.0	18.878	6.09	19.38	15.877	17.447	15.199	0.71
4155.0	18.773	6.108	19.535	15.812	17.445	15.259	0.684
4160.0	18.912	6.063	19.51	15.901	17.386	15.228	0.732
4165.0	18.906	6.29	19.526	15.805	17.496	15.031	0.666
4170.0	19.032	6.228	19.581	15.688	17.266	15.05	0.661
4175.0	19.125	6.125	19.742	15.79	17.12	14.997	0.674
4180.0	18.957	6.248	19.332	15.599	17.689	15.141	0.687
4185.0	19.117	6.168	19.419	15.948	17.338	15.119	0.653
4190.0	19.183	6.208	19.624	15.493	17.689	14.827	0.635
4195.0	19.134	6.163	19.508	15.648	17.528	15.03	0.627
4200.0	19.018	6.195	19.563	15.621	17.524	15.044	0.633
4205.0	19.05	6.236	19.747	15.832	17.247	14.772	0.645
4210.0	19.252	6.137	19.481	15.736	17.387	14.884	0.605
4215.0	19.261	6.246	19.704	15.788	17.331	14.673	0.634
4220.0	19.367	6.296	19.591	15.751	17.306	14.816	0.604
4225.0	19.408	6.246	19.606	15.635	17.475	14.617	0.607
4230.0	19.154	6.187	19.524	15.701	17.643	14.616	0.648
4235.0	19.538	6.337	19.59	15.657	17.392	14.525	0.569
4240.0	19.38	6.05	19.725	15.703	17.538	14.637	0.567
4245.0	19.46	6.411	19.694	15.427	17.396	14.606	0.625
4250.0	19.401	6.293	19.512	15.888	17.178	14.577	0.616
4255.0	19.569	6.335	19.657	15.491	17.425	14.489	0.558
4260.0	19.344	6.282	19.797	15.546	17.596	14.61	0.568
4265.0	19.437	6.363	19.747	15.455	17.632	14.401	0.577
4270.0	19.464	6.251	19.958	15.428	17.363	14.532	0.552
4275.0	19.394	6.177	19.508	15.539	17.721	14.468	0.553
4280.0	19.602	6.424	19.705	15.647	17.397	14.366	0.527
4285.0	19.407	6.218	19.865	15.631	17.296	14.55	0.553
4290.0	19.581	6.348	19.713	15.565	17.306	14.336	0.552
4295.0	19.508	6.191	19.986	15.559	17.634	14.252	0.517
4300.0	19.625	6.416	19.677	15.492	17.485	14.286	0.503
4305.0	19.506	6.306	19.769	15.692	17.537	14.173	0.549
4310.0	19.789	6.411	19.709	15.314	17.44	14.385	0.485
4315.0	19.567	6.478	19.955	15.351	17.511	14.18	0.506
4320.0	19.85	6.399	19.788	15.365	17.634	13.958	0.546
4325.0	19.647	6.375	19.909	15.609	17.517	13.981	0.482
4330.0	19.786	6.391	19.852	15.479	17.543	13.863	0.519
4335.0	19.686	6.372	19.959	15.356	17.668	13.873	0.515
4340.0	19.587	6.537	19.964	15.637	17.345	13.897	0.465
4345.0	19.702	6.505	19.762	15.331	17.724	14.027	0.466
4350.0	20.052	6.543	19.566	15.33	17.528	14.064	0.471
4355.0	19.889	6.469	19.862	15.553	17.456	13.783	0.457
4360.0	19.898	6.526	20.001	15.37	17.408	13.786	0.452
4365.0	20.037	6.454	19.817	15.729	17.44	13.713	0.438
4370.0	19.858	6.524	19.806	15.351	17.828	13.599	0.442
4375.0	19.628	6.591	20.155	15.232	17.561	13.859	0.451
4380.0	19.959	6.616	19.875	15.3	17.696	13.773	0.469
4385.0	20.001	6.633	19.983	15.253	17.509	13.769	0.418
4390.0	19.851	6.697	19.931	15.514	17.505	13.651	0.441
4395.0	20.098	6.57	19.974	15.279	17.544	13.659	0.411
4400.0	20.179	6.542	19.866	15.416	17.529	13.607	0.409
4405.0	20.134	6.539	20.056	15.092	17.48	13.668	0.395
4410.0	20.247	6.451	20.31	15.128	17.483	13.441	0.394
4415.0	20.128	6.802	20.011	15.174	17.667	13.404	0.433
4420.0	20.301	6.643	20.062	15.084	17.787	13.232	0.407
4425.0	19.989	6.764	20.089	15.256	17.348	13.577	0.361
4430.0	20.024	6.916	19.937	15.183	17.463	13.486	0.402
4435.0	20.288	6.717	20.097	15.192	17.332	13.546	0.404
4440.0	20.069	6.693	20.196	15.145	17.515	13.378	0.376
4445.0	20.583	6.804	19.772	15.123	17.454	13.281	0.36
4450.0	20.311	6.797	20.162	15.21	17.482	13.217	0.378
4455.0	20.441	6.735	19.967	15.085	17.609	13.285	0.392
4460.0	20.266	6.575	20.257	15.164	17.582	13.283	0.399
4465.0	20.504	6.764	20.143	15.009	17.548	13.228	0.356
4470.0	20.036	6.744	20.283	15.31	17.413	13.227	0.364
4475.0	20.563	6.698	19.964	15.279	17.441	13.05	0.33
4480.0	20.136	6.769	20.127	15.13	17.632	13.31	0.321
4485.0	20.354	6.815	20.266	14.966	17.536	13.154	0.36
4490.0	20.317	6.85	20.231	15.08	17.52	13.123	0.36
4495.0	20.605	6.872	20.086	15.111	17.424	13.065	0.328
4500.0	20.405	6.743	20.257	15.111	17.454	13.076	0.349
4505.0	20.476	6.705	20.484	14.909	17.689	12.879	0.328
4510.0	20.448	6.861	20.087	14.96	17.589	13.101	0.324
4515.0	20.633	6.912	20.019	15.207	17.568	12.809	0.357
4520.0	20.398	6.858	20.317	15.012	17.597	12.908	0.325
4525.0	20.595	6.7	20.321	14.988	17.586	12.844	0.297
4530.0	20.438	6.956	20.26	14.906	17.508	13.053	0.328
4535.0	20.485	6.903	20.466	14.987	17.313	12.791	0.343
4540.0	20.596	6.826	20.285	15.11	17.484	12.692	0.341
4545.0	20.914	6.892	20.404	14.882	17.479	12.782	0.282
4550.0	20.561	7.019	20.267	14.924	17.572	12.623	0.305
4555.0	20.572	6.992	20.475	15.027	17.306	12.709	0.267
4560.0	20.635	6.84	20.204	14.885	17.671	12.721	0.259
4565.0	20.74	6.936	20.163	14.829	17.632	12.757	0.279
4570.0	20.916	6.801	20.265	14.946	17.68	12.423	0.255
4575.0	20.755	6.951	20.358	14.971	17.337	12.615	0.3
4580.0	20.839	6.966	20.263	14.766	17.478	12.68	0.298
4585.0	20.855	6.902	20.201	14.798	17.673	12.616	0.266
4590.0	20.908	7.137	20.311	14.735	17.576	12.487	0.275
4595.0	20.812	6.903	20.492	15.003	17.335	12.421	0.269
4600.0	20.806	7.041	20.484	14.853	17.473	12.466	0.268
4605.0	20.858	7.099	20.69	14.787	17.282	12.377	0.257
4610.0	21.065	7.148	20.446	14.962	17.243	12.298	0.265
4615.0	20.946	6.917	20.367	14.758	17.625	12.306	0.277
4620.0	20.853	6.991	20.551	14.914	17.537	12.19	0.252
4625.0	21.079	7.077	20.437	14.777	17.677	11.989	0.23
4630.0	21.124	7.015	20.227	14.946	17.529	12.131	0.262
4635.0	20.988	6.979	20.486	14.931	17.407	12.22	0.253
4640.0	21.135	7.022	20.667	14.572	17.605	12.098	0.246
4645.0	21.202	7.112	20.673	14.626	17.453	12.057	0.232
4650.0	21.144	7.062	20.418	14.808	17.428	12.231	0.22
4655.0	20.839	7.075	20.71	14.668	17.616	12.147	0.261
4660.0	21.17	7.242	20.455	14.676	17.632	11.857	0.229
4665.0	21.175	7.107	20.525	14.541	17.418	12.127	0.237
4670.0	21.077	7.159	20.486	14.899	17.484	12.074	0.236
4675.0	21.169	7.144	20.842	14.439	17.676	11.846	0.217
4680.0	21.516	7.273	20.398	14.727	17.284	11.853	0.208
4685.0	21.268	7.273	20.668	14.7	17.159	11.912	0.211
4690.0	21.506	7.116	20.692	14.698	17.323	11.803	0.231
4695.0	21.108	7.153	20.536	14.819	17.67	11.761	0.236
4700.0	21.566	7.163	20.675	14.318	17.425	11.959	0.224
4705.0	21.407	7.202	20.654	14.61	17.376	11.823	0.196
4710.0	21.233	7.199	20.587	14.644	17.594	11.777	0.209
4715.0	21.487	7.252	20.51	14.602	17.578	11.518	0.181
4720.0	21.279	7.261	20.725	14.707	17.447	11.648	0.185
4725.0	21.391	7.191	20.678	14.703	17.464	11.709	0.206
4730.0	21.377	7.097	20.626	14.778	17.443	11.712	0.164
4735.0	21.426	7.199	20.736	14.485	17.696	11.539	0.188
4740.0	21.557	7.271	20.63	14.537	17.39	11.629	0.176
4745.0	21.445	7.354	20.881	14.294	17.611	11.397	0.168
4750.0	21.566	7.537	20.61	14.243	17.606	11.486	0.188
4755.0	21.745	7.334	20.738	14.504	17.463	11.286	0.187
4760.0	21.695	7.354	20.573	14.471	17.431	11.596	0.169
4765.0	21.538	7.304	20.583	14.554	17.559	11.449	0.166
4770.0	21.531	7.396	20.83	14.447	17.433	11.374	0.18
4775.0	21.807	7.364	20.719	14.385	17.424	11.396	0.181
4780.0	21.829	7.34	20.676	14.396	17.439	11.419	0.173
4785.0	21.782	7.469	20.766	14.445	17.493	11.19	0.146
4790.0	21.534	7.446	20.911	14.373	17.715	11.148	0.136
4795.0	21.501	7.432	20.71	14.411	17.686	11.267	0.158
4800.0	21.842	7.234	20.754	14.179	17.794	11.195	0.177
4805.0	21.668	7.369	20.933	14.229	17.59	11.268	0.178
4810.0	21.972	7.342	20.703	14.327	17.623	11.147	0.147
4815.0	21.974	7.362	20.703	14.294	17.605	11.116	0.145
4820.0	21.856	7.469	21.177	14.224	17.425	10.981	0.134
4825.0	21.872	7.506	21.171	14.24	17.344	10.908	0.127
4830.0	21.713	7.467	20.778	14.356	17.813	11.006	0.163
4835.0	21.827	7.522	20.708	14.302	17.526	11.056	0.152
4840.0	21.925	7.485	20.694	14.349	17.729	11.012	0.133
4845.0	21.925	7.353	20.893	14.231	17.61	11.02	0.127
4850.0	21.774	7.538	20.972	14.242	17.641	10.831	0.128
4855.0	22.147	7.475	21.029	14.286	17.52	10.65	0.138
4860.0	22.121	7.529	21.03	14.087	17.58	10.639	0.131
4865.0	21.958	7.563	21.062	14.114	17.457	10.661	0.121
4870.0	21.841	7.773	20.97	14.125	17.653	10.745	0.161
4875.0	22.138	7.82	20.883	14.057	17.531	10.672	0.136
4880.0	22.123	7.54	20.977	14.207	17.476	10.636	0.129
4885.0	22.157	7.608	20.928	14.127	17.383	10.867	0.117
4890.0	21.984	7.704	21.177	14.049	17.455	10.482	0.09
4895.0	22.162	7.566	21.102	14.102	17.276	10.781	0.123
4900.0	21.995	7.69	21.012	14.095	17.691	10.467	0.127
4905.0	22.071	7.529	21.152	14.061	17.609	10.664	0.125
4910.0	22.188	7.726	21.27	13.921	17.514	10.413	0.103
4915.0	22.324	7.643	21.271	14.052	17.481	10.318	0.113
4920.0	22.199	7.704	21.175	14.074	17.19	10.645	0.109
4925.0	22.298	7.677	20.995	13.863	17.56	10.52	0.116
4930.0	22.29	7.79	21.263	13.97	17.499	10.217	0.103
4935.0	22.175	7.695	21.017	14.015	17.443	10.514	0.1
4940.0	22.374	7.626	21.089	13.868	17.691	10.285	0.093
4945.0	22.379	7.812	21.283	13.892	17.414	10.108	0.1
4950.0	22.401	7.806	20.93	14.007	17.76	10.074	0.095
4955.0	22.572	7.677	21.173	13.778	17.634	10.163	0.083
4960.0	22.534	7.816	21.098	13.94	17.377	10.202	0.088
4965.0	22.368	7.722	21.272	13.897	17.526	10.116	0.101
4970.0	22.51	7.737	21.186	13.88	17.377	10.2	0.08
4975.0	22.605	7.664	21.148	13.929	17.553	10.08	0.089
4980.0	22.54	7.766	21.28	13.966	17.565	9.962	0.077
4985.0	22.609	7.851	21.302	13.841	17.42	9.906	0.08
4990.0	22.66	7.898	21.297	13.872	17.378	9.894	0.074
4995.0	22.443	7.754	21.429	13.777	17.536	10.056	0.083
5000.0	22.821	7.677	21.354	13.818	17.389	9.869	0.079
5005.0	22.575	7.722	21.147	13.988	17.436	10.102	0.091
5010.0	22.654	7.808	21.341	13.669	17.596	9.869	0.087
5015.0	22.667	7.968	21.109	13.849	17.686	9.75	0.085
5020.0	22.395	7.891	21.59	13.76	17.63	9.697	0.08
5025.0	22.547	7.831	21.555	13.554	17.692	9.796	0.061
5030.0	22.488	7.979	21.439	13.526	17.549	9.906	0.078
5035.0	22.574	7.853	21.371	13.869	17.502	9.827	0.072
5040.0	22.511	7.922	21.357	13.68	17.81	9.729	0.088
5045.0	22.82	7.82	21.382	13.734	17.635	9.56	0.062
5050.0	22.642	8.016	21.203	13.742	17.513	9.866	0.065
5055.0	22.743	7.839	21.526	13.582	17.421	9.793	0.063
5060.0	22.842	7.917	21.277	13.771	17.477	9.687	0.071
5065.0	22.964	7.868	21.191	13.64	17.507	9.731	0.077
5070.0	22.645	8.03	21.298	13.695	17.493	9.651	0.055
5075.0	22.885	8.016	21.338	13.56	17.521	9.62	0.077
5080.0	22.787	8.09	21.65	13.545	17.419	9.623	0.08
5085.0	22.807	8.042	21.348	13.483	17.535	9.705	0.07
5090.0	22.792	8.072	21.457	13.42	17.59	9.601	0.055
5095.0	22.798	7.907	21.39	13.705	17.549	9.55	0.075
5100.0	22.843	8.227	21.606	13.515	17.273	9.44	0.072
5105.0	22.947	7.987	21.561	13.526	17.486	9.34	0.067
5110.0	22.961	8.018	21.662	13.529	17.311	9.47	0.056
5115.0	23.033	8.193	21.613	13.271	17.411	9.274	0.055
5120.0	22.895	8.262	21.504	13.298	17.58	9.366	0.052
5125.0	23.049	8.124	21.479	13.305	17.608	9.303	0.052
5130.0	23.143	8.001	21.64	13.439	17.546	9.142	0.054
5135.0	23.299	8.059	21.478	13.523	17.358	9.177	0.052
5140.0	23.139	8.125	21.657	13.284	17.537	9.236	0.044
5145.0	23.056	8.193	21.521	13.396	17.404	9.256	0.056
5150.0	23.264	8.082	21.657	13.4	17.437	9.138	0.057
5155.0	23.125	8.166	21.729	13.418	17.331	8.987	0.053
5160.0	23.253	8.051	21.532	13.385	17.576	9.139	0.053
5165.0	23.189	7.995	21.716	13.424	17.416	9.118	0.042
5170.0	23.324	8.274	21.433	13.536	17.257	8.957	0.056
5175.0	23.271	8.056	21.615	13.296	17.557	8.99	0.05
5180.0	23.344	8.216	21.386	13.393	17.561	8.951	0.046
5185.0	23.356	8.202	21.466	13.32	17.5	8.895	0.051
5190.0	23.316	8.186	21.751	13.425	17.307	8.94	0.041
5195.0	23.627	8.238	21.618	13.201	17.368	8.831	0.043
5200.0	23.212	8.161	21.796	13.441	17.479	8.944	0.048
5205.0	23.389	8.125	21.614	13.188	17.727	8.803	0.051
5210.0	23.447	8.248	21.723	13.178	17.51	8.824	0.032
5215.0	23.276	8.358	21.612	13.144	17.602	8.913	0.044
5220.0	23.411	8.307	21.717	13.269	17.205	9.021	0.034
5225.0	23.562	8.185	21.786	13.013	17.376	8.883	0.039
5230.0	23.438	8.201	21.812	13.299	17.404	8.659	0.035
5235.0	23.321	8.407	21.729	13.238	17.24	8.843	0.037
5240.0	23.674	8.279	21.721	13.123	17.358	8.56	0.043
5245.0	23.586	8.337	21.689	13.158	17.362	8.78	0.031
5250.0	23.541	8.442	21.738	13.183	17.285	8.591	0.032
5255.0	23.493	8.354	21.54	13.209	17.485	8.681	0.023
5260.0	23.526	8.296	21.704	13.183	17.57	8.553	0.042
5265.0	23.656	8.418	21.758	13.03	17.436	8.542	0.034
5270.0	23.44	8.374	21.774	13.268	17.391	8.511	0.037
5275.0	23.514	8.315	21.814	13.119	17.487	8.492	0.028
5280.0	23.34	8.353	21.799	12.968	17.644	8.671	0.02
5285.0	23.674	8.37	21.821	12.888	17.565	8.479	0.034
5290.0	23.733	8.374	21.72	13.227	17.328	8.406	0.033
5295.0	23.683	8.415	21.772	13.013	17.583	8.409	0.033
5300.0	24.004	8.339	21.804	12.873	17.286	8.388	0.036
5305.0	23.701	8.572	21.91	13.15	17.345	8.241	0.028
5310.0	23.675	8.414	21.845	13.119	17.472	8.312	0.036
5315.0	23.886	8.465	21.843	12.989	17.495	8.236	0.033
5320.0	23.977	8.446	22.088	12.902	17.258	8.078	0.029
5325.0	23.776	8.42	21.825	12.979	17.503	8.21	0.029
5330.0	23.668	8.586	21.781	12.889	17.469	8.192	0.021
5335.0	23.703	8.591	21.94	12.903	17.536	8.141	0.027
5340.0	23.869	8.368	21.884	12.887	17.655	8.162	0.031
5345.0	23.9	8.676	21.653	12.878	17.373	8.251	0.033
5350.0	23.795	8.491	21.947	12.984	17.424	8.127	0.019
5355.0	23.735	8.608	21.98	13.167	17.359	7.922	0.019
5360.0	23.744	8.709	21.933	12.751	17.575	8.126	0.037
5365.0	23.822	8.601	21.906	12.905	17.587	7.958	0.024
5370.0	23.938	8.607	21.754	12.874	17.412	8.153	0.028
5375.0	23.726	8.606	22.093	12.864	17.573	8.004	0.019
5380.0	24.174	8.526	21.894	12.808	17.444	7.893	0.021
5385.0	24.056	8.611	21.808	12.85	17.326	7.968	0.018
5390.0	23.772	8.556	21.872	12.884	17.422	8.038	0.021
5395.0	23.984	8.643	22.065	12.915	17.483	7.756	0.021
5400.0	23.976	8.596	22.174	12.737	17.295	7.811	0.026
5405.0	24.021	8.489	22.11	12.799	17.318	7.989	0.016
5410.0	23.882	8.616	22.112	12.743	17.527	7.831	0.015
5415.0	23.983	8.5	22.108	12.862	17.475	7.831	0.02
5420.0	24.111	8.683	22.016	12.833	17.255	7.806	0.017
5425.0	24.221	8.559	21.823	12.58	17.593	7.804	0.011
5430.0	23.959	8.588	21.975	12.769	17.44	7.792	0.017
5435.0	23.798	8.693	21.866	12.742	17.682	7.721	0.024
5440.0	24.085	8.71	21.863	12.956	17.382	7.627	0.018
5445.0	24.242	8.449	22.12	12.812	17.332	7.65	0.019
5450.0	24.068	8.744	22.028	12.735	17.38	7.72	0.018
5455.0	24.223	8.869	21.717	12.785	17.552	7.605	0.012
5460.0	23.992	8.767	22.041	12.655	17.323	7.777	0.023
5465.0	23.917	8.799	22.187	12.608	17.369	7.746	0.012
5470.0	24.111	8.858	22.176	12.543	17.392	7.577	0.018
5475.0	24.335	8.634	22.319	12.653	17.334	7.458	0.013
5480.0	24.41	8.643	22.01	12.807	17.211	7.576	0.017
5485.0	24.431	8.641	22.147	12.777	17.24	7.448	0.012
5490.0	24.025	8.752	22.111	12.668	17.461	7.595	0.012
5495.0	24.369	8.703	22.011	12.657	17.405	7.491	0.014
5500.0	24.358	8.85	22.06	12.424	17.337	7.556	0.016
5505.0	24.279	8.839	21.943	12.77	17.464	7.374	0.017
5510.0	24.239	8.789	22.416	12.554	17.203	7.431	0.013
5515.0	24.2	8.824	22.391	12.542	17.336	7.346	0.014
5520.0	24.312	8.925	22.209	12.51	17.324	7.342	0.01
5525.0	24.544	8.775	22.119	12.375	17.367	7.406	0.009
5530.0	24.423	8.791	22.166	12.526	17.381	7.283	0.012
5535.0	24.495	8.85	22.083	12.558	17.287	7.429	0.011
5540.0	24.352	8.928	22.06	12.603	17.414	7.178	0.012
5545.0	24.607	8.941	22.194	12.537	17.136	7.3	0.009
5550.0	24.636	8.809	22.161	12.474	17.375	7.216	0.009
5555.0	24.666	8.87	21.911	12.485	17.29	7.245	0.01
5560.0	24.598	8.784	22.127	12.504	17.373	7.246	0.011
5565.0	24.395	8.921	22.462	12.437	17.301	7.177	0.014
5570.0	24.723	8.827	22.237	12.388	17.386	7.01	0.017
5575.0	24.507	8.964	22.181	12.551	17.254	7.111	0.018
5580.0	24.343	8.829	22.083	12.49	17.429	7.282	0.012
5585.0	24.444	9.047	22.329	12.272	17.543	7.027	0.011
5590.0	24.687	9.054	22.2	12.299	17.415	7.009	0.01
5595.0	24.609	8.937	22.196	12.408	17.274	6.991	0.012
5600.0	24.682	8.84	22.203	12.359	17.406	6.989	0.014
5605.0	24.639	8.847	22.046	12.344	17.604	7.014	0.015
5610.0	24.579	9.08	22.169	12.34	17.406	7.122	0.011
5615.0	24.652	8.988	22.196	12.265	17.461	6.916	0.012
5620.0	24.934	8.922	22.21	12.375	17.188	6.82	0.012
5625.0	24.83	8.767	22.116	12.332	17.403	6.943	0.009
5630.0	24.523	9.318	22.142	12.385	17.264	6.873	0.014
5635.0	24.681	9.016	22.102	12.197	17.632	6.911	0.009
5640.0	24.744	9.142	22.213	12.275	17.452	6.798	0.006
5645.0	24.654	9.019	22.225	12.258	17.321	6.987	0.008
5650.0	24.77	9.087	22.253	12.338	17.134	6.891	0.011
5655.0	24.683	9.141	22.159	12.319	17.522	6.763	0.008
5660.0	25.035	9.031	22.234	12.282	17.127	6.755	0.005
5665.0	25.103	9.055	22.245	12.242	17.211	6.651	0.006
5670.0	24.941	8.917	22.298	12.238	17.219	6.816	0.012
5675.0	24.613	9.068	22.44	12.321	17.434	6.611	0.011
5680.0	24.985	9.099	22.407	12.218	17.118	6.717	0.013
5685.0	24.953	9.108	22.198	11.876	17.512	6.75	0.01
5690.0	24.839	9.009	22.242	12.397	17.314	6.663	0.008
5695.0	25.214	9.249	22.181	12.0	17.229	6.656	0.01
5700.0	25.048	9.273	22.264	12.129	17.183	6.671	0.008
5705.0	25.033	9.001	22.197	11.993	17.591	6.707	0.009
5710.0	25.236	9.142	22.337	12.06	17.202	6.517	0.004
5715.0	24.932	9.128	22.36	12.075	17.336	6.653	0.005
5720.0	25.108	9.19	22.007	12.29	17.374	6.329	0.008
5725.0	25.103	9.156	22.234	12.059	17.28	6.481	0.006
5730.0	25.115	9.297	22.307	11.892	17.18	6.549	0.01
5735.0	25.058	9.114	22.335	12.072	17.173	6.631	0.004
5740.0	25.155	9.304	22.261	12.105	17.308	6.297	0.003
5745.0	25.221	8.985	22.367	11.969	17.296	6.588	0.006
5750.0	25.345	9.334	22.342	11.923	17.049	6.451	0.008
5755.0	25.267	9.358	22.242	11.983	17.147	6.426	0.006
5760.0	25.214	9.43	22.379	11.846	17.131	6.442	0.007
5765.0	24.932	9.147	22.252	12.194	17.237	6.434	0.007
5770.0	25.174	9.301	22.408	11.867	17.432	6.206	0.006
5775.0	25.21	9.311	22.379	11.973	17.226	6.245	0.002
5780.0	25.096	9.047	22.663	11.922	17.369	6.37	0.005
5785.0	25.002	9.22	22.487	12.081	17.315	6.202	0.006
5790.0	25.367	9.294	22.083	12.01	17.361	6.191	0.004
5795.0	25.325	9.423	22.347	11.817	17.206	6.262	0.009
5800.0	25.66	9.328	21.917	11.879	17.238	6.325	0.008
5805.0	25.351	9.306	22.325	11.837	17.388	6.12	0.001
5810.0	25.237	9.286	22.41	12.08	17.136	6.204	0.004
5815.0	25.279	9.343	22.269	11.883	17.388	6.111	0.001
5820.0	25.228	9.39	22.293	11.916	17.249	6.247	0.005
5825.0	25.203	9.212	22.31	11.834	17.495	6.101	0.001
5830.0	25.226	9.217	22.477	11.963	17.308	6.013	0.008
5835.0	25.269	9.294	22.617	11.811	17.273	6.167	0.002
5840.0	25.333	9.434	22.675	11.705	17.082	6.058	0.001
5845.0	25.612	9.335	22.17	11.887	17.274	6.024	0.003
5850.0	25.07	9.578	22.403	11.751	17.302	6.106	0.005
5855.0	25.177	9.505	22.458	11.891	17.277	5.997	0.005
5860.0	25.424	9.29	22.465	11.805	17.295	6.012	0.001
5865.0	25.476	9.323	22.527	11.767	17.199	5.918	0.009
5870.0	25.539	9.378	22.16	11.73	17.332	6.028	0.003
5875.0	25.556	9.172	22.585	11.888	17.093	6.012	0.004
5880.0	25.472	9.205	22.706	11.834	17.273	5.842	0.007
5885.0	25.611	9.29	22.561	11.612	17.305	5.976	0.002
5890.0	25.482	9.342	22.621	11.584	17.344	5.875	0.003
5895.0	25.49	9.412	22.288	11.733	17.375	6.0	0.005
5900.0	25.549	9.416	22.544	11.682	17.132	5.842	0.002
5905.0	25.45	9.352	22.412	11.738	17.41	5.799	0.005
5910.0	25.56	9.499	22.196	11.655	17.405	5.936	0.0
5915.0	25.696	9.463	22.449	11.633	17.156	5.864	0.003
5920.0	25.479	9.437	22.556	11.681	17.25	5.831	0.001
5925.0	25.459	9.372	22.348	11.838	17.366	5.797	0.005
5930.0	25.517	9.476	22.623	11.787	17.12	5.635	0.002
5935.0	25.713	9.582	22.403	11.658	17.201	5.64	0.004
5940.0	25.649	9.56	22.43	11.698	17.191	5.712	0.003
5945.0	25.822	9.384	22.345	11.54	17.235	5.687	0.002
5950.0	25.614	9.481	22.661	11.694	17.176	5.569	0.003
5955.0	25.425	9.558	22.461	11.648	17.314	5.602	0.001
5960.0	25.738	9.426	22.545	11.769	17.045	5.629	0.001
5965.0	26.044	9.311	22.306	11.546	17.335	5.548	0.001
5970.0	25.767	9.475	22.433	11.648	17.274	5.545	0.007
5975.0	25.324	9.498	22.709	11.764	17.284	5.562	0.0
5980.0	25.608	9.522	22.626	11.587	17.346	5.5	0.003
5985.0	25.587	9.742	22.471	11.422	17.237	5.624	0.003
5990.0	25.606	9.434	22.669	11.675	17.202	5.511	0.004
5995.0	25.725	9.536	22.559	11.436	17.405	5.516	0.004
6000.0	25.981	9.474	22.571	11.685	17.094	5.427	0.003
